!   radius[R*]    pressure[bar]   temperature[K]
     1.00000       5.0000E-05        2500.00
     1.00231       4.8525E-05        2496.55
     1.00462       4.7096E-05        2493.09
     1.00694       4.5711E-05        2489.65
     1.00926       4.4368E-05        2486.21
     1.01159       4.3067E-05        2482.77
     1.01393       4.1806E-05        2479.34
     1.01627       4.0584E-05        2475.92
     1.01861       3.9399E-05        2472.49
     1.02096       3.8251E-05        2469.08
     1.02332       3.7137E-05        2465.66
     1.02568       3.6058E-05        2462.26
     1.02804       3.5011E-05        2458.85
     1.03042       3.3997E-05        2455.46
     1.03279       3.3013E-05        2452.06
     1.03518       3.2059E-05        2448.67
     1.03757       3.1134E-05        2445.29
     1.03996       3.0237E-05        2441.91
     1.04236       2.9367E-05        2438.54
     1.04477       2.8524E-05        2435.17
     1.04718       2.7706E-05        2431.80
     1.04959       2.6912E-05        2428.44
     1.05202       2.6143E-05        2425.08
     1.05444       2.5396E-05        2421.73
     1.05688       2.4672E-05        2418.39
     1.05931       2.3970E-05        2415.04
     1.06176       2.3288E-05        2411.71
     1.06421       2.2627E-05        2408.37
     1.06666       2.1986E-05        2405.04
     1.06913       2.1364E-05        2401.72
     1.07159       2.0760E-05        2398.40
     1.07407       2.0174E-05        2395.09
     1.07654       1.9605E-05        2391.78
     1.07903       1.9054E-05        2388.47
     1.08152       1.8519E-05        2385.17
     1.08401       1.7999E-05        2381.88
     1.08652       1.7495E-05        2378.58
     1.08902       1.7006E-05        2375.30
     1.09154       1.6531E-05        2372.01
     1.09405       1.6070E-05        2368.74
     1.09658       1.5622E-05        2365.46
     1.09911       1.5188E-05        2362.19
     1.10165       1.4766E-05        2358.93
     1.10419       1.4357E-05        2355.67
     1.10674       1.3959E-05        2352.41
     1.10929       1.3573E-05        2349.16
     1.11185       1.3199E-05        2345.92
     1.11442       1.2835E-05        2342.67
     1.11699       1.2482E-05        2339.44
     1.11956       1.2139E-05        2336.20
     1.12215       1.1806E-05        2332.97
     1.12474       1.1482E-05        2329.75
     1.12733       1.1168E-05        2326.53
     1.12993       1.0863E-05        2323.32
     1.13254       1.0567E-05        2320.10
     1.13515       1.0279E-05        2316.90
     1.13777       9.9994E-06        2313.70
     1.14040       9.7278E-06        2310.50
     1.14303       9.4641E-06        2307.31
     1.14567       9.2078E-06        2304.12
     1.14831       8.9589E-06        2300.93
     1.15096       8.7170E-06        2297.75
     1.15362       8.4820E-06        2294.58
     1.15628       8.2537E-06        2291.41
     1.15895       8.0319E-06        2288.24
     1.16162       7.8164E-06        2285.08
     1.16430       7.6069E-06        2281.92
     1.16699       7.4034E-06        2278.77
     1.16968       7.2055E-06        2275.62
     1.17238       7.0133E-06        2272.47
     1.17509       6.8265E-06        2269.33
     1.17780       6.6449E-06        2266.20
     1.18052       6.4684E-06        2263.06
     1.18324       6.2969E-06        2259.94
     1.18597       6.1301E-06        2256.81
     1.18871       5.9680E-06        2253.69
     1.19145       5.8104E-06        2250.58
     1.19420       5.6572E-06        2247.47
     1.19696       5.5083E-06        2244.36
     1.19972       5.3635E-06        2241.26
     1.20249       5.2227E-06        2238.16
     1.20526       5.0858E-06        2235.07
     1.20804       4.9527E-06        2231.98
     1.21083       4.8233E-06        2228.90
     1.21362       4.6974E-06        2225.82
     1.21642       4.5750E-06        2222.74
     1.21923       4.4560E-06        2219.67
     1.22204       4.3403E-06        2216.60
     1.22486       4.2277E-06        2213.54
     1.22769       4.1182E-06        2210.48
     1.23052       4.0117E-06        2207.42
     1.23336       3.9081E-06        2204.37
     1.23621       3.8073E-06        2201.33
     1.23906       3.7093E-06        2198.29
     1.24192       3.6139E-06        2195.25
     1.24479       3.5211E-06        2192.21
     1.24766       3.4308E-06        2189.18
     1.25054       3.3430E-06        2186.16
     1.25342       3.2576E-06        2183.14
     1.25632       3.1744E-06        2180.12
     1.25922       3.0935E-06        2177.11
     1.26212       3.0148E-06        2174.10
     1.26503       2.9382E-06        2171.09
     1.26795       2.8637E-06        2168.09
     1.27088       2.7911E-06        2165.10
     1.27381       2.7205E-06        2162.11
     1.27675       2.6518E-06        2159.12
     1.27970       2.5849E-06        2156.13
     1.28265       2.5198E-06        2153.15
     1.28561       2.4565E-06        2150.18
     1.28858       2.3948E-06        2147.21
     1.29155       2.3347E-06        2144.24
     1.29453       2.2763E-06        2141.28
     1.29752       2.2194E-06        2138.32
     1.30051       2.1640E-06        2135.36
     1.30351       2.1101E-06        2132.41
     1.30652       2.0575E-06        2129.46
     1.30954       2.0064E-06        2126.52
     1.31256       1.9566E-06        2123.58
     1.31559       1.9081E-06        2120.65
     1.31862       1.8609E-06        2117.72
     1.32166       1.8150E-06        2114.79
     1.32471       1.7702E-06        2111.87
     1.32777       1.7266E-06        2108.95
     1.33083       1.6841E-06        2106.03
     1.33391       1.6428E-06        2103.12
     1.33698       1.6025E-06        2100.22
     1.34007       1.5632E-06        2097.32
     1.34316       1.5250E-06        2094.42
     1.34626       1.4878E-06        2091.52
     1.34937       1.4515E-06        2088.63
     1.35248       1.4162E-06        2085.75
     1.35560       1.3818E-06        2082.86
     1.35873       1.3482E-06        2079.98
     1.36187       1.3156E-06        2077.11
     1.36501       1.2837E-06        2074.24
     1.36816       1.2527E-06        2071.37
     1.37131       1.2225E-06        2068.51
     1.37448       1.1930E-06        2065.65
     1.37765       1.1643E-06        2062.80
     1.38083       1.1364E-06        2059.95
     1.38402       1.1091E-06        2057.10
     1.38721       1.0826E-06        2054.26
     1.39041       1.0567E-06        2051.42
     1.39362       1.0314E-06        2048.58
     1.39684       1.0068E-06        2045.75
     1.40006       9.8288E-07        2042.92
     1.40329       9.5951E-07        2040.10
     1.40653       9.3674E-07        2037.28
     1.40977       9.1454E-07        2034.47
     1.41303       8.9289E-07        2031.65
     1.41629       8.7179E-07        2028.85
     1.41955       8.5122E-07        2026.04
     1.42283       8.3117E-07        2023.24
     1.42611       8.1161E-07        2020.45
     1.42940       7.9254E-07        2017.66
     1.43270       7.7395E-07        2014.87
     1.43601       7.5583E-07        2012.08
     1.43932       7.3815E-07        2009.30
     1.44264       7.2091E-07        2006.52
     1.44597       7.0410E-07        2003.75
     1.44931       6.8771E-07        2000.98
     1.45265       6.7172E-07        1998.22
     1.45601       6.5612E-07        1995.46
     1.45937       6.4091E-07        1992.70
     1.46273       6.2608E-07        1989.94
     1.46611       6.1161E-07        1987.19
     1.46949       5.9749E-07        1984.45
     1.47288       5.8373E-07        1981.71
     1.47628       5.7029E-07        1978.97
     1.47969       5.5719E-07        1976.23
     1.48310       5.4441E-07        1973.50
     1.48652       5.3194E-07        1970.77
     1.48996       5.1977E-07        1968.05
     1.49339       5.0790E-07        1965.33
     1.49684       4.9631E-07        1962.61
     1.50029       4.8501E-07        1959.90
     1.50376       4.7398E-07        1957.19
     1.50723       4.6322E-07        1954.49
     1.51070       4.5272E-07        1951.79
     1.51419       4.4247E-07        1949.09
     1.51768       4.3247E-07        1946.40
     1.52119       4.2271E-07        1943.71
     1.52470       4.1318E-07        1941.02
     1.52821       4.0388E-07        1938.34
     1.53174       3.9481E-07        1935.66
     1.53528       3.8595E-07        1932.98
     1.53882       3.7730E-07        1930.31
     1.54237       3.6886E-07        1927.65
     1.54593       3.6062E-07        1924.98
     1.54950       3.5258E-07        1922.32
     1.55307       3.4472E-07        1919.66
     1.55665       3.3706E-07        1917.01
     1.56025       3.2957E-07        1914.36
     1.56385       3.2227E-07        1911.72
     1.56746       3.1513E-07        1909.07
     1.57107       3.0816E-07        1906.44
     1.57470       3.0136E-07        1903.80
     1.57833       2.9472E-07        1901.17
     1.58197       2.8823E-07        1898.54
     1.58562       2.8190E-07        1895.92
     1.58928       2.7571E-07        1893.30
     1.59295       2.6967E-07        1890.68
     1.59663       2.6377E-07        1888.07
     1.60031       2.5801E-07        1885.46
     1.60400       2.5238E-07        1882.86
     1.60770       2.4688E-07        1880.25
     1.61141       2.4151E-07        1877.65
     1.61513       2.3627E-07        1875.06
     1.61886       2.3114E-07        1872.47
     1.62260       2.2614E-07        1869.88
     1.62634       2.2125E-07        1867.30
     1.63009       2.1647E-07        1864.72
     1.63385       2.1180E-07        1862.14
     1.63762       2.0724E-07        1859.57
     1.64140       2.0279E-07        1857.00
     1.64519       1.9844E-07        1854.43
     1.64899       1.9419E-07        1851.87
     1.65279       1.9003E-07        1849.31
     1.65661       1.8597E-07        1846.75
     1.66043       1.8200E-07        1844.20
     1.66426       1.7812E-07        1841.65
     1.66810       1.7434E-07        1839.11
     1.67195       1.7063E-07        1836.56
     1.67581       1.6701E-07        1834.03
     1.67967       1.6348E-07        1831.49
     1.68355       1.6002E-07        1828.96
     1.68744       1.5664E-07        1826.43
     1.69133       1.5334E-07        1823.91
     1.69523       1.5011E-07        1821.39
     1.69914       1.4695E-07        1818.87
     1.70307       1.4387E-07        1816.36
     1.70699       1.4085E-07        1813.85
     1.71093       1.3791E-07        1811.34
     1.71488       1.3502E-07        1808.84
     1.71884       1.3221E-07        1806.34
     1.72281       1.2945E-07        1803.84
     1.72678       1.2676E-07        1801.35
     1.73077       1.2413E-07        1798.86
     1.73476       1.2155E-07        1796.37
     1.73876       1.1903E-07        1793.89
     1.74277       1.1657E-07        1791.41
     1.74680       1.1416E-07        1788.94
     1.75083       1.1181E-07        1786.46
     1.75487       1.0951E-07        1783.99
     1.75892       1.0726E-07        1781.53
     1.76298       1.0506E-07        1779.07
     1.76704       1.0290E-07        1776.61
     1.77112       1.0080E-07        1774.15
     1.77521       9.8735E-08        1771.70
     1.77930       9.6720E-08        1769.25
     1.78341       9.4750E-08        1766.81
     1.78753       9.2822E-08        1764.37
     1.79165       9.0936E-08        1761.93
     1.79578       8.9091E-08        1759.49
     1.79993       8.7286E-08        1757.06
     1.80408       8.5521E-08        1754.63
     1.80824       8.3794E-08        1752.21
     1.81242       8.2104E-08        1749.79
     1.81660       8.0451E-08        1747.37
     1.82079       7.8833E-08        1744.95
     1.82499       7.7250E-08        1742.54
     1.82920       7.5701E-08        1740.13
     1.83343       7.4186E-08        1737.73
     1.83766       7.2703E-08        1735.33
     1.84190       7.1252E-08        1732.93
     1.84615       6.9832E-08        1730.53
     1.85041       6.8443E-08        1728.14
     1.85468       6.7083E-08        1725.75
     1.85896       6.5752E-08        1723.37
     1.86325       6.4449E-08        1720.99
     1.86755       6.3174E-08        1718.61
     1.87186       6.1926E-08        1716.23
     1.87617       6.0705E-08        1713.86
     1.88050       5.9510E-08        1711.49
     1.88484       5.8339E-08        1709.13
     1.88919       5.7194E-08        1706.77
     1.89355       5.6072E-08        1704.41
     1.89792       5.4975E-08        1702.05
     1.90230       5.3900E-08        1699.70
     1.90669       5.2848E-08        1697.35
     1.91109       5.1818E-08        1695.01
     1.91550       5.0809E-08        1692.66
     1.91992       4.9822E-08        1690.32
     1.92435       4.8855E-08        1687.99
     1.92879       4.7909E-08        1685.66
     1.93324       4.6982E-08        1683.33
     1.93770       4.6074E-08        1681.00
     1.94217       4.5186E-08        1678.68
     1.94666       4.4315E-08        1676.36
     1.95115       4.3463E-08        1674.04
     1.95565       4.2628E-08        1671.73
     1.96016       4.1811E-08        1669.42
     1.96469       4.1011E-08        1667.11
     1.96922       4.0226E-08        1664.81
     1.97376       3.9459E-08        1662.50
     1.97832       3.8706E-08        1660.21
     1.98288       3.7970E-08        1657.91
     1.98746       3.7248E-08        1655.62
     1.99205       3.6541E-08        1653.33
     1.99664       3.5849E-08        1651.05
     2.00125       3.5171E-08        1648.77
     2.00587       3.4506E-08        1646.49
     2.01050       3.3855E-08        1644.21
     2.01514       3.3217E-08        1641.94
     2.01979       3.2593E-08        1639.67
     2.02445       3.1981E-08        1637.41
     2.02912       3.1381E-08        1635.14
     2.03380       3.0793E-08        1632.88
     2.03849       3.0218E-08        1630.63
     2.04320       2.9653E-08        1628.37
     2.04791       2.9101E-08        1626.12
     2.05264       2.8559E-08        1623.88
     2.05737       2.8028E-08        1621.63
     2.06212       2.7508E-08        1619.39
     2.06688       2.6998E-08        1617.15
     2.07165       2.6499E-08        1614.92
     2.07643       2.6009E-08        1612.69
     2.08122       2.5529E-08        1610.46
     2.08602       2.5059E-08        1608.23
     2.09084       2.4598E-08        1606.01
     2.09566       2.4146E-08        1603.79
     2.10050       2.3703E-08        1601.57
     2.10535       2.3269E-08        1599.36
     2.11020       2.2844E-08        1597.15
     2.11507       2.2427E-08        1594.94
     2.11995       2.2018E-08        1592.74
     2.12485       2.1617E-08        1590.54
     2.12975       2.1224E-08        1588.34
     2.13466       2.0839E-08        1586.14
     2.13959       2.0461E-08        1583.95
     2.14453       2.0091E-08        1581.76
     2.14947       1.9728E-08        1579.58
     2.15443       1.9372E-08        1577.39
     2.15941       1.9023E-08        1575.21
     2.16439       1.8681E-08        1573.04
     2.16938       1.8345E-08        1570.86
     2.17439       1.8016E-08        1568.69
     2.17941       1.7693E-08        1566.52
     2.18444       1.7377E-08        1564.36
     2.18948       1.7067E-08        1562.20
     2.19453       1.6762E-08        1560.04
     2.19959       1.6464E-08        1557.88
     2.20467       1.6171E-08        1555.73
     2.20976       1.5884E-08        1553.58
     2.21486       1.5603E-08        1551.43
     2.21997       1.5327E-08        1549.29
     2.22509       1.5056E-08        1547.15
     2.23022       1.4790E-08        1545.01
     2.23537       1.4529E-08        1542.87
     2.24053       1.4274E-08        1540.74
     2.24570       1.4023E-08        1538.61
     2.25088       1.3777E-08        1536.49
     2.25607       1.3536E-08        1534.36
     2.26128       1.3299E-08        1532.24
     2.26650       1.3067E-08        1530.12
     2.27173       1.2839E-08        1528.01
     2.27697       1.2615E-08        1525.90
     2.28222       1.2396E-08        1523.79
     2.28749       1.2181E-08        1521.68
     2.29277       1.1970E-08        1519.58
     2.29806       1.1763E-08        1517.48
     2.30336       1.1559E-08        1515.38
     2.30868       1.1360E-08        1513.29
     2.31401       1.1164E-08        1511.20
     2.31935       1.0972E-08        1509.11
     2.32470       1.0784E-08        1507.02
     2.33006       1.0599E-08        1504.94
     2.33544       1.0417E-08        1502.86
     2.34083       1.0239E-08        1500.78
     2.34623       1.0064E-08        1498.71
     2.35164       9.8924E-09        1496.64
     2.35707       9.7239E-09        1494.57
     2.36251       9.5586E-09        1492.51
     2.36796       9.3963E-09        1490.44
     2.37342       9.2370E-09        1488.38
     2.37890       9.0807E-09        1486.33
     2.38439       8.9272E-09        1484.27
     2.38989       8.7765E-09        1482.22
     2.39541       8.6287E-09        1480.17
     2.40093       8.4835E-09        1478.13
     2.40648       8.3409E-09        1476.08
     2.41203       8.2010E-09        1474.04
     2.41759       8.0636E-09        1472.01
     2.42317       7.9287E-09        1469.97
     2.42876       7.7963E-09        1467.94
     2.43437       7.6663E-09        1465.91
     2.43999       7.5386E-09        1463.89
     2.44562       7.4133E-09        1461.86
     2.45126       7.2902E-09        1459.84
     2.45692       7.1693E-09        1457.83
     2.46259       7.0507E-09        1455.81
     2.46827       6.9341E-09        1453.80
     2.47396       6.8197E-09        1451.79
     2.47967       6.7073E-09        1449.78
     2.48539       6.5969E-09        1447.78
     2.49113       6.4885E-09        1445.78
     2.49688       6.3821E-09        1443.78
     2.50264       6.2775E-09        1441.79
     2.50842       6.1748E-09        1439.79
     2.51420       6.0740E-09        1437.80
     2.52000       5.9749E-09        1435.82
     2.52582       5.8776E-09        1433.83
     2.53165       5.7820E-09        1431.85
     2.53749       5.6881E-09        1429.87
     2.54335       5.5959E-09        1427.90
     2.54921       5.5053E-09        1425.92
     2.55510       5.4163E-09        1423.95
     2.56099       5.3289E-09        1421.98
     2.56690       5.2430E-09        1420.02
     2.57283       5.1586E-09        1418.06
     2.57876       5.0758E-09        1416.10
     2.58471       4.9943E-09        1414.14
     2.59068       4.9143E-09        1412.19
     2.59666       4.8357E-09        1410.23
     2.60265       4.7584E-09        1408.29
     2.60865       4.6825E-09        1406.34
     2.61467       4.6080E-09        1404.40
     2.62071       4.5347E-09        1402.46
     2.62675       4.4627E-09        1400.52
     2.63282       4.3919E-09        1398.58
     2.63889       4.3224E-09        1396.65
     2.64498       4.2541E-09        1394.72
     2.65108       4.1869E-09        1392.79
     2.65720       4.1209E-09        1390.87
     2.66333       4.0561E-09        1388.94
     2.66948       3.9923E-09        1387.02
     2.67564       3.9297E-09        1385.11
     2.68181       3.8681E-09        1383.19
     2.68800       3.8076E-09        1381.28
     2.69420       3.7481E-09        1379.37
     2.70042       3.6896E-09        1377.47
     2.70665       3.6322E-09        1375.56
     2.71290       3.5757E-09        1373.66
     2.71916       3.5202E-09        1371.76
     2.72543       3.4656E-09        1369.87
     2.73172       3.4119E-09        1367.97
     2.73803       3.3592E-09        1366.08
     2.74434       3.3073E-09        1364.20
     2.75068       3.2563E-09        1362.31
     2.75702       3.2062E-09        1360.43
     2.76339       3.1569E-09        1358.55
     2.76976       3.1085E-09        1356.67
     2.77615       3.0609E-09        1354.80
     2.78256       3.0140E-09        1352.92
     2.78898       2.9680E-09        1351.05
     2.79542       2.9227E-09        1349.19
     2.80187       2.8782E-09        1347.32
     2.80833       2.8344E-09        1345.46
     2.81481       2.7914E-09        1343.60
     2.82131       2.7491E-09        1341.74
     2.82782       2.7074E-09        1339.89
     2.83434       2.6665E-09        1338.04
     2.84088       2.6262E-09        1336.19
     2.84744       2.5867E-09        1334.34
     2.85401       2.5477E-09        1332.50
     2.86060       2.5094E-09        1330.66
     2.86720       2.4718E-09        1328.82
     2.87381       2.4347E-09        1326.98
     2.88044       2.3983E-09        1325.15
     2.88709       2.3625E-09        1323.32
     2.89375       2.3272E-09        1321.49
     2.90043       2.2926E-09        1319.66
     2.90712       2.2585E-09        1317.84
     2.91383       2.2249E-09        1316.02
     2.92056       2.1919E-09        1314.20
     2.92729       2.1595E-09        1312.38
     2.93405       2.1275E-09        1310.57
     2.94082       2.0961E-09        1308.76
     2.94761       2.0652E-09        1306.95
     2.95441       2.0348E-09        1305.14
     2.96123       2.0049E-09        1303.34
     2.96806       1.9755E-09        1301.54
     2.97491       1.9466E-09        1299.74
     2.98177       1.9181E-09        1297.94
     2.98865       1.8900E-09        1296.15
     2.99555       1.8625E-09        1294.36
     3.00246       1.8353E-09        1292.57
     3.00939       1.8086E-09        1290.78
     3.01633       1.7824E-09        1289.00
     3.02329       1.7565E-09        1287.22
     3.03027       1.7311E-09        1285.44
     3.03726       1.7061E-09        1283.66
     3.04427       1.6814E-09        1281.89
     3.05130       1.6572E-09        1280.12
     3.05834       1.6333E-09        1278.35
     3.06540       1.6099E-09        1276.58
     3.07247       1.5868E-09        1274.82
     3.07956       1.5640E-09        1273.05
     3.08666       1.5416E-09        1271.29
     3.09379       1.5196E-09        1269.54
     3.10093       1.4979E-09        1267.78
     3.10808       1.4766E-09        1266.03
     3.11525       1.4556E-09        1264.28
     3.12244       1.4349E-09        1262.53
     3.12965       1.4146E-09        1260.79
     3.13687       1.3945E-09        1259.05
     3.14411       1.3748E-09        1257.31
     3.15136       1.3554E-09        1255.57
     3.15864       1.3363E-09        1253.83
     3.16592       1.3175E-09        1252.10
     3.17323       1.2990E-09        1250.37
     3.18055       1.2807E-09        1248.64
     3.18789       1.2628E-09        1246.92
     3.19525       1.2451E-09        1245.19
     3.20262       1.2277E-09        1243.47
     3.21001       1.2106E-09        1241.76
     3.21742       1.1937E-09        1240.04
     3.22484       1.1771E-09        1238.33
     3.23228       1.1608E-09        1236.61
     3.23974       1.1447E-09        1234.91
     3.24722       1.1288E-09        1233.20
     3.25471       1.1132E-09        1231.49
     3.26222       1.0978E-09        1229.79
     3.26975       1.0827E-09        1228.09
     3.27729       1.0678E-09        1226.40
     3.28486       1.0531E-09        1224.70
     3.29244       1.0387E-09        1223.01
     3.30003       1.0244E-09        1221.32
     3.30765       1.0104E-09        1219.63
     3.31528       9.9659E-10        1217.95
     3.32293       9.8299E-10        1216.26
     3.33060       9.6960E-10        1214.58
     3.33829       9.5641E-10        1212.90
     3.34599       9.4342E-10        1211.23
     3.35371       9.3062E-10        1209.55
     3.36145       9.1802E-10        1207.88
     3.36921       9.0561E-10        1206.21
     3.37698       8.9338E-10        1204.54
     3.38477       8.8133E-10        1202.88
     3.39258       8.6947E-10        1201.22
     3.40041       8.5778E-10        1199.56
     3.40826       8.4627E-10        1197.90
     3.41612       8.3492E-10        1196.24
     3.42401       8.2375E-10        1194.59
     3.43191       8.1274E-10        1192.94
     3.43983       8.0190E-10        1191.29
     3.44776       7.9121E-10        1189.65
     3.45572       7.8069E-10        1188.00
     3.46369       7.7032E-10        1186.36
     3.47169       7.6010E-10        1184.72
     3.47970       7.5003E-10        1183.08
     3.48773       7.4011E-10        1181.45
     3.49578       7.3034E-10        1179.81
     3.50384       7.2071E-10        1178.18
     3.51193       7.1122E-10        1176.56
     3.52003       7.0187E-10        1174.93
     3.52815       6.9266E-10        1173.31
     3.53630       6.8358E-10        1171.69
     3.54446       6.7464E-10        1170.07
     3.55263       6.6582E-10        1168.45
     3.56083       6.5713E-10        1166.83
     3.56905       6.4857E-10        1165.22
     3.57729       6.4013E-10        1163.61
     3.58554       6.3182E-10        1162.00
     3.59381       6.2362E-10        1160.40
     3.60211       6.1554E-10        1158.79
     3.61042       6.0758E-10        1157.19
     3.61875       5.9974E-10        1155.59
     3.62710       5.9200E-10        1154.00
     3.63547       5.8438E-10        1152.40
     3.64386       5.7687E-10        1150.81
     3.65227       5.6946E-10        1149.22
     3.66070       5.6217E-10        1147.63
     3.66914       5.5497E-10        1146.04
     3.67761       5.4788E-10        1144.46
     3.68610       5.4089E-10        1142.88
     3.69460       5.3400E-10        1141.30
     3.70313       5.2720E-10        1139.72
     3.71167       5.2050E-10        1138.15
     3.72024       5.1390E-10        1136.57
     3.72882       5.0739E-10        1135.00
     3.73743       5.0098E-10        1133.43
     3.74605       4.9465E-10        1131.87
     3.75469       4.8841E-10        1130.30
     3.76336       4.8226E-10        1128.74
     3.77204       4.7620E-10        1127.18
     3.78075       4.7022E-10        1125.62
     3.78947       4.6433E-10        1124.07
     3.79822       4.5852E-10        1122.52
     3.80698       4.5279E-10        1120.96
     3.81576       4.4714E-10        1119.41
     3.82457       4.4157E-10        1117.87
     3.83340       4.3607E-10        1116.32
     3.84224       4.3065E-10        1114.78
     3.85111       4.2531E-10        1113.24
     3.85999       4.2004E-10        1111.70
     3.86890       4.1485E-10        1110.16
     3.87783       4.0973E-10        1108.63
     3.88678       4.0467E-10        1107.10
     3.89575       3.9969E-10        1105.57
     3.90474       3.9478E-10        1104.04
     3.91375       3.8993E-10        1102.51
     3.92278       3.8515E-10        1100.99
     3.93183       3.8044E-10        1099.47
     3.94090       3.7579E-10        1097.95
     3.95000       3.7120E-10        1096.43
     3.95911       3.6668E-10        1094.92
     3.96825       3.6222E-10        1093.40
     3.97740       3.5782E-10        1091.89
     3.98658       3.5348E-10        1090.38
     3.99578       3.4920E-10        1088.88
     4.00500       3.4497E-10        1087.37
     4.01424       3.4081E-10        1085.87
     4.02351       3.3670E-10        1084.37
     4.03279       3.3264E-10        1082.87
     4.04210       3.2864E-10        1081.37
     4.05142       3.2470E-10        1079.88
     4.06077       3.2081E-10        1078.39
     4.07014       3.1697E-10        1076.90
     4.07953       3.1318E-10        1075.41
     4.08895       3.0944E-10        1073.92
     4.09838       3.0575E-10        1072.44
     4.10784       3.0212E-10        1070.96
     4.11732       2.9853E-10        1069.48
     4.12682       2.9499E-10        1068.00
     4.13634       2.9149E-10        1066.52
     4.14589       2.8804E-10        1065.05
     4.15546       2.8464E-10        1063.58
     4.16504       2.8129E-10        1062.11
     4.17466       2.7797E-10        1060.64
     4.18429       2.7470E-10        1059.17
     4.19394       2.7148E-10        1057.71
     4.20362       2.6830E-10        1056.25
     4.21332       2.6516E-10        1054.79
     4.22304       2.6206E-10        1053.33
     4.23279       2.5900E-10        1051.87
     4.24256       2.5598E-10        1050.42
     4.25235       2.5300E-10        1048.97
     4.26216       2.5006E-10        1047.52
     4.27199       2.4716E-10        1046.07
     4.28185       2.4430E-10        1044.63
     4.29173       2.4148E-10        1043.18
     4.30164       2.3869E-10        1041.74
     4.31156       2.3593E-10        1040.30
     4.32151       2.3322E-10        1038.86
     4.33148       2.3054E-10        1037.43
     4.34148       2.2789E-10        1035.99
     4.35150       2.2528E-10        1034.56
     4.36154       2.2270E-10        1033.13
     4.37160       2.2015E-10        1031.71
     4.38169       2.1764E-10        1030.28
     4.39180       2.1516E-10        1028.86
     4.40194       2.1271E-10        1027.43
     4.41209       2.1030E-10        1026.01
     4.42227       2.0791E-10        1024.60
     4.43248       2.0556E-10        1023.18
     4.44271       2.0323E-10        1021.77
     4.45296       2.0094E-10        1020.35
     4.46323       1.9867E-10        1018.94
     4.47353       1.9643E-10        1017.54
     4.48386       1.9422E-10        1016.13
     4.49420       1.9204E-10        1014.73
     4.50457       1.8989E-10        1013.32
     4.51497       1.8777E-10        1011.92
     4.52539       1.8567E-10        1010.52
     4.53583       1.8359E-10        1009.13
     4.54630       1.8155E-10        1007.73
     4.55679       1.7953E-10        1006.34
     4.56730       1.7753E-10        1004.95
     4.57784       1.7556E-10        1003.56
     4.58840       1.7362E-10        1002.17
     4.59899       1.7170E-10        1000.79
     4.60960       1.6980E-10         999.41
     4.62024       1.6793E-10         998.02
     4.63090       1.6608E-10         996.65
     4.64159       1.6426E-10         995.27
     4.65230       1.6245E-10         993.89
     4.66303       1.6067E-10         992.52
     4.67380       1.5891E-10         991.15
     4.68458       1.5718E-10         989.78
     4.69539       1.5546E-10         988.41
     4.70622       1.5377E-10         987.04
     4.71708       1.5209E-10         985.68
     4.72797       1.5044E-10         984.32
     4.73888       1.4881E-10         982.96
     4.74981       1.4720E-10         981.60
     4.76078       1.4561E-10         980.24
     4.77176       1.4403E-10         978.89
     4.78277       1.4248E-10         977.53
     4.79381       1.4095E-10         976.18
     4.80487       1.3943E-10         974.83
     4.81596       1.3793E-10         973.49
     4.82707       1.3645E-10         972.14
     4.83821       1.3499E-10         970.80
     4.84937       1.3355E-10         969.46
     4.86056       1.3213E-10         968.12
     4.87178       1.3072E-10         966.78
     4.88302       1.2933E-10         965.44
     4.89429       1.2795E-10         964.11
     4.90558       1.2660E-10         962.78
     4.91690       1.2525E-10         961.45
     4.92825       1.2393E-10         960.12
     4.93962       1.2262E-10         958.79
     4.95102       1.2133E-10         957.47
     4.96244       1.2005E-10         956.14
     4.97390       1.1879E-10         954.82
     4.98537       1.1754E-10         953.50
     4.99688       1.1631E-10         952.18
     5.00841       1.1509E-10         950.87
     5.01997       1.1389E-10         949.55
     5.03155       1.1270E-10         948.24
     5.04316       1.1153E-10         946.93
     5.05480       1.1036E-10         945.62
     5.06646       1.0922E-10         944.32
     5.07815       1.0809E-10         943.01
     5.08987       1.0697E-10         941.71
     5.10162       1.0586E-10         940.41
     5.11339       1.0477E-10         939.11
     5.12519       1.0369E-10         937.81
     5.13701       1.0262E-10         936.51
     5.14887       1.0156E-10         935.22
     5.16075       1.0052E-10         933.93
     5.17266       9.9490E-11         932.64
     5.18459       9.8471E-11         931.35
     5.19656       9.7465E-11         930.06
     5.20855       9.6470E-11         928.77
     5.22057       9.5487E-11         927.49
     5.23261       9.4516E-11         926.21
     5.24469       9.3555E-11         924.93
     5.25679       9.2606E-11         923.65
     5.26892       9.1668E-11         922.37
     5.28108       9.0741E-11         921.10
     5.29327       8.9825E-11         919.83
     5.30548       8.8919E-11         918.56
     5.31772       8.8023E-11         917.29
     5.32999       8.7138E-11         916.02
     5.34229       8.6264E-11         914.75
     5.35462       8.5399E-11         913.49
     5.36698       8.4544E-11         912.23
     5.37936       8.3699E-11         910.96
     5.39177       8.2864E-11         909.71
     5.40422       8.2038E-11         908.45
     5.41669       8.1222E-11         907.19
     5.42919       8.0415E-11         905.94
     5.44171       7.9617E-11         904.69
     5.45427       7.8828E-11         903.44
     5.46686       7.8049E-11         902.19
     5.47947       7.7278E-11         900.94
     5.49212       7.6516E-11         899.70
     5.50479       7.5762E-11         898.45
     5.51749       7.5018E-11         897.21
     5.53022       7.4281E-11         895.97
     5.54299       7.3553E-11         894.73
     5.55578       7.2833E-11         893.50
     5.56860       7.2121E-11         892.26
     5.58145       7.1417E-11         891.03
     5.59433       7.0721E-11         889.80
     5.60723       7.0033E-11         888.57
     5.62017       6.9353E-11         887.34
     5.63314       6.8680E-11         886.11
     5.64614       6.8015E-11         884.89
     5.65917       6.7357E-11         883.67
     5.67223       6.6706E-11         882.45
     5.68532       6.6063E-11         881.23
     5.69844       6.5427E-11         880.01
     5.71159       6.4798E-11         878.79
     5.72477       6.4176E-11         877.58
     5.73798       6.3561E-11         876.36
     5.75122       6.2952E-11         875.15
     5.76449       6.2351E-11         873.94
     5.77779       6.1756E-11         872.74
     5.79112       6.1167E-11         871.53
     5.80449       6.0585E-11         870.33
     5.81788       6.0010E-11         869.12
     5.83131       5.9440E-11         867.92
     5.84476       5.8877E-11         866.72
     5.85825       5.8320E-11         865.52
     5.87177       5.7770E-11         864.33
     5.88532       5.7225E-11         863.13
     5.89890       5.6686E-11         861.94
     5.91251       5.6153E-11         860.75
     5.92615       5.5626E-11         859.56
     5.93983       5.5105E-11         858.37
     5.95353       5.4589E-11         857.19
     5.96727       5.4079E-11         856.00
     5.98104       5.3574E-11         854.82
     5.99484       5.3075E-11         853.64
     6.00868       5.2581E-11         852.46
     6.02254       5.2092E-11         851.28
     6.03644       5.1609E-11         850.10
     6.05037       5.1131E-11         848.93
     6.06433       5.0658E-11         847.75
     6.07832       5.0190E-11         846.58
     6.09235       4.9727E-11         845.41
     6.10641       4.9270E-11         844.25
     6.12050       4.8817E-11         843.08
     6.13462       4.8368E-11         841.91
     6.14878       4.7925E-11         840.75
     6.16297       4.7486E-11         839.59
     6.17719       4.7052E-11         838.43
     6.19144       4.6623E-11         837.27
     6.20573       4.6198E-11         836.11
     6.22005       4.5778E-11         834.96
     6.23440       4.5362E-11         833.80
     6.24879       4.4951E-11         832.65
     6.26321       4.4543E-11         831.50
     6.27766       4.4140E-11         830.35
     6.29215       4.3742E-11         829.20
     6.30667       4.3347E-11         828.06
     6.32122       4.2957E-11         826.91
     6.33580       4.2571E-11         825.77
     6.35043       4.2189E-11         824.63
     6.36508       4.1811E-11         823.49
     6.37977       4.1436E-11         822.35
     6.39449       4.1066E-11         821.21
     6.40924       4.0700E-11         820.08
     6.42403       4.0337E-11         818.95
     6.43886       3.9978E-11         817.81
     6.45372       3.9623E-11         816.68
     6.46861       3.9271E-11         815.56
     6.48353       3.8924E-11         814.43
     6.49850       3.8579E-11         813.30
     6.51349       3.8239E-11         812.18
     6.52852       3.7901E-11         811.06
     6.54359       3.7568E-11         809.94
     6.55869       3.7237E-11         808.82
     6.57382       3.6911E-11         807.70
     6.58899       3.6587E-11         806.58
     6.60419       3.6267E-11         805.47
     6.61943       3.5950E-11         804.35
     6.63471       3.5636E-11         803.24
     6.65002       3.5326E-11         802.13
     6.66536       3.5018E-11         801.02
     6.68074       3.4714E-11         799.92
     6.69616       3.4413E-11         798.81
     6.71161       3.4115E-11         797.71
     6.72710       3.3820E-11         796.61
     6.74262       3.3528E-11         795.50
     6.75818       3.3239E-11         794.41
     6.77378       3.2952E-11         793.31
     6.78941       3.2669E-11         792.21
     6.80507       3.2389E-11         791.12
     6.82078       3.2111E-11         790.02
     6.83652       3.1836E-11         788.93
     6.85229       3.1564E-11         787.84
     6.86810       3.1295E-11         786.75
     6.88395       3.1028E-11         785.66
     6.89984       3.0764E-11         784.58
     6.91576       3.0503E-11         783.49
     6.93172       3.0244E-11         782.41
     6.94771       2.9988E-11         781.33
     6.96374       2.9734E-11         780.25
     6.97981       2.9483E-11         779.17
     6.99592       2.9235E-11         778.10
     7.01206       2.8988E-11         777.02
     7.02824       2.8745E-11         775.95
     7.04446       2.8503E-11         774.87
     7.06072       2.8265E-11         773.80
     7.07701       2.8028E-11         772.73
     7.09334       2.7794E-11         771.67
     7.10971       2.7562E-11         770.60
     7.12612       2.7332E-11         769.53
     7.14256       2.7105E-11         768.47
     7.15904       2.6880E-11         767.41
     7.17556       2.6657E-11         766.35
     7.19212       2.6436E-11         765.29
     7.20872       2.6217E-11         764.23
     7.22535       2.6001E-11         763.18
     7.24202       2.5786E-11         762.12
     7.25873       2.5574E-11         761.07
     7.27548       2.5364E-11         760.02
     7.29227       2.5156E-11         758.97
     7.30910       2.4949E-11         757.92
     7.32597       2.4745E-11         756.87
     7.34287       2.4543E-11         755.82
     7.35981       2.4343E-11         754.78
     7.37680       2.4144E-11         753.74
     7.39382       2.3948E-11         752.69
     7.41088       2.3754E-11         751.65
     7.42798       2.3561E-11         750.62
     7.44512       2.3370E-11         749.58
     7.46230       2.3181E-11         748.54
     7.47952       2.2994E-11         747.51
     7.49678       2.2808E-11         746.47
     7.51408       2.2625E-11         745.44
     7.53142       2.2443E-11         744.41
     7.54880       2.2263E-11         743.38
     7.56622       2.2084E-11         742.36
     7.58368       2.1908E-11         741.33
     7.60118       2.1733E-11         740.31
     7.61872       2.1559E-11         739.28
     7.63630       2.1387E-11         738.26
     7.65392       2.1217E-11         737.24
     7.67158       2.1049E-11         736.22
     7.68928       2.0882E-11         735.21
     7.70703       2.0716E-11         734.19
     7.72481       2.0553E-11         733.17
     7.74264       2.0390E-11         732.16
     7.76050       2.0229E-11         731.15
     7.77841       2.0070E-11         730.14
     7.79636       1.9912E-11         729.13
     7.81435       1.9756E-11         728.12
     7.83238       1.9601E-11         727.12
     7.85046       1.9448E-11         726.11
     7.86857       1.9296E-11         725.11
     7.88673       1.9145E-11         724.11
     7.90493       1.8996E-11         723.10
     7.92317       1.8848E-11         722.11
     7.94145       1.8702E-11         721.11
     7.95978       1.8557E-11         720.11
     7.97814       1.8413E-11         719.12
     7.99655       1.8271E-11         718.12
     8.01501       1.8130E-11         717.13
     8.03350       1.7990E-11         716.14
     8.05204       1.7852E-11         715.15
     8.07062       1.7714E-11         714.16
     8.08924       1.7578E-11         713.17
     8.10791       1.7444E-11         712.19
     8.12662       1.7310E-11         711.20
     8.14537       1.7178E-11         710.22
     8.16417       1.7047E-11         709.24
     8.18301       1.6917E-11         708.26
     8.20189       1.6788E-11         707.28
     8.22082       1.6661E-11         706.30
     8.23979       1.6534E-11         705.33
     8.25880       1.6409E-11         704.35
     8.27786       1.6285E-11         703.38
     8.29696       1.6162E-11         702.41
     8.31610       1.6040E-11         701.44
     8.33529       1.5919E-11         700.47
     8.35453       1.5800E-11         699.50
     8.37381       1.5681E-11         698.53
     8.39313       1.5564E-11         697.57
     8.41250       1.5447E-11         696.60
     8.43191       1.5332E-11         695.64
     8.45137       1.5217E-11         694.68
     8.47087       1.5104E-11         693.72
     8.49042       1.4992E-11         692.76
     8.51001       1.4880E-11         691.80
     8.52964       1.4770E-11         690.85
     8.54933       1.4661E-11         689.89
     8.56906       1.4552E-11         688.94
     8.58883       1.4445E-11         687.99
     8.60865       1.4338E-11         687.04
     8.62851       1.4233E-11         686.09
     8.64842       1.4128E-11         685.14
     8.66838       1.4024E-11         684.19
     8.68838       1.3922E-11         683.25
     8.70843       1.3820E-11         682.30
     8.72853       1.3719E-11         681.36
     8.74867       1.3619E-11         680.42
     8.76886       1.3519E-11         679.48
     8.78909       1.3421E-11         678.54
     8.80937       1.3324E-11         677.60
     8.82970       1.3227E-11         676.66
     8.85007       1.3131E-11         675.73
     8.87050       1.3036E-11         674.79
     8.89097       1.2942E-11         673.86
     8.91148       1.2849E-11         672.93
     8.93205       1.2756E-11         672.00
     8.95266       1.2665E-11         671.07
     8.97332       1.2574E-11         670.14
     8.99402       1.2484E-11         669.22
     9.01478       1.2394E-11         668.29
     9.03558       1.2306E-11         667.37
     9.05643       1.2218E-11         666.45
     9.07733       1.2131E-11         665.53
     9.09827       1.2045E-11         664.61
     9.11927       1.1959E-11         663.69
     9.14031       1.1874E-11         662.77
     9.16140       1.1790E-11         661.85
     9.18254       1.1707E-11         660.94
     9.20373       1.1624E-11         660.03
     9.22497       1.1542E-11         659.11
     9.24626       1.1461E-11         658.20
     9.26759       1.1381E-11         657.29
     9.28898       1.1301E-11         656.39
     9.31041       1.1221E-11         655.48
     9.33190       1.1143E-11         654.57
     9.35343       1.1065E-11         653.67
     9.37502       1.0988E-11         652.76
     9.39665       1.0911E-11         651.86
     9.41833       1.0835E-11         650.96
     9.44006       1.0760E-11         650.06
     9.46185       1.0686E-11         649.16
     9.48368       1.0612E-11         648.27
     9.50557       1.0538E-11         647.37
     9.52750       1.0465E-11         646.48
     9.54949       1.0393E-11         645.58
     9.57152       1.0322E-11         644.69
     9.59361       1.0251E-11         643.80
     9.61575       1.0181E-11         642.91
     9.63793       1.0111E-11         642.02
     9.66017       1.0042E-11         641.13
     9.68247       9.9730E-12         640.25
     9.70481       9.9050E-12         639.36
     9.72720       9.8375E-12         638.48
     9.74965       9.7706E-12         637.60
     9.77215       9.7042E-12         636.72
     9.79470       9.6384E-12         635.84
     9.81730       9.5732E-12         634.96
     9.83995       9.5084E-12         634.08
     9.86266       9.4442E-12         633.20
     9.88542       9.3806E-12         632.33
     9.90823       9.3174E-12         631.46
     9.93109       9.2548E-12         630.58
     9.95401       9.1927E-12         629.71
     9.97698       9.1311E-12         628.84
    10.00000       9.0700E-12         627.97
