!   height[km]     pressure[bar]    temperature[K]
     -341.0           100.0            2106.632
     -311.9           74.06            2023.306
     -283.8           54.84            1944.017
     -256.7           40.62            1867.742
     -230.7           30.08            1793.515
     -205.6           22.28            1720.385
     -181.4           16.50            1647.712
     -158.3           12.22            1574.686
     -136.1           9.047            1501.608
     -115.0           6.700            1430.128
     -94.75           4.962            1362.360
     -75.44           3.675            1300.188
     -56.95           2.721            1244.887
     -39.17           2.015            1196.396
     -22.02           1.492            1154.034
     -5.418           1.105            1116.633
      10.67          0.8185            1082.921
      26.31          0.6062            1051.980
      41.53          0.4489            1023.079
      56.37          0.3325             995.638
      70.84          0.2462             969.381
      84.95          0.1823             944.161
      98.72          0.1350             919.849
      112.2          0.1000             896.344
      125.3          7.4057E-02         873.533
      138.1          5.4844E-02         851.219
      150.5          4.0616E-02         829.236
      162.7          3.0079E-02         807.457
      174.6          2.2275E-02         785.905
      186.2          1.6496E-02         764.757
      197.4          1.2217E-02         744.223
      208.4          9.0474E-03         724.463
      219.1          6.7002E-03         705.519
      229.6          4.9619E-03         687.544
      239.8          3.6747E-03         670.787
      249.8          2.7213E-03         655.397
      259.5          2.0153E-03         641.400
      269.1          1.4925E-03         628.777
      278.5          1.1053E-03         617.438
      287.7          8.1855E-04         607.179
      296.8          6.0619E-04         597.807
      305.8          4.4893E-04         589.243
      314.7          3.3246E-04         581.349
      323.4          2.4621E-04         573.990
      332.1          1.8233E-04         567.043
      340.7          1.3503E-04         560.424
      349.1          1.0000E-04         554.080
      357.5          7.4057E-05         547.906
      365.8          5.4844E-05         541.951
      374.0          4.0616E-05         536.222
      382.2          3.0079E-05         530.718
      390.3          2.2275E-05         525.440
      398.3          1.6496E-05         520.391
      406.2          1.2217E-05         515.570
      414.0          9.0474E-06         510.967
      421.8          6.7002E-06         506.568
      429.6          4.9619E-06         502.385
      437.3          3.6747E-06         498.442
      444.9          2.7213E-06         494.750
      452.5          2.0153E-06         491.257
      460.0          1.4925E-06         487.926
      467.5          1.1053E-06         484.718
      475.0          8.1855E-07         481.610
      482.4          6.0619E-07         478.587
      489.7          4.4893E-07         475.649
      497.1          3.3246E-07         472.786
      504.4          2.4621E-07         469.994
      511.6          1.8233E-07         467.300
      518.9          1.3503E-07         464.811
      526.0          1.0000E-07         462.695
