!   height[km]     pressure[bar]    temperature[K]
     -1536.           100.0            1830.408
     -1408.           71.63            1752.152
     -1284.           51.30            1682.575
     -1164.           36.75            1621.314
     -1046.           26.32            1568.252
     -931.2           18.85            1522.319
     -818.2           13.50            1481.256
     -707.0           9.672            1442.592
     -597.7           6.928            1405.149
     -490.3           4.962            1368.720
     -384.6           3.554            1333.216
     -280.8           2.546            1298.499
     -178.8           1.823            1264.176
     -78.63           1.306            1229.664
      19.38          0.9354            1194.620
      114.7          0.6700            1159.185
      207.9          0.4799            1123.903
      299.0          0.3437            1089.152
      387.9          0.2462            1055.140
      474.7          0.1764            1021.887
      559.4          0.1263             989.309
      641.9          9.0474E-02         957.463
      722.3          6.4803E-02         926.462
      800.7          4.6416E-02         896.440
      877.0          3.3246E-02         867.760
      951.4          2.3813E-02         840.817
      1024.          1.7056E-02         815.838
      1095.          1.2217E-02         793.015
      1164.          8.7504E-03         772.418
      1232.          6.2676E-03         753.903
      1299.          4.4893E-03         737.260
      1365.          3.2155E-03         722.370
      1430.          2.3031E-03         709.055
      1494.          1.6496E-03         697.131
      1557.          1.1816E-03         686.427
      1620.          8.4632E-04         676.633
      1682.          6.0619E-04         667.462
      1744.          4.3419E-04         658.820
      1805.          3.1100E-04         650.646
      1866.          2.2275E-04         642.913
      1926.          1.5955E-04         635.622
      1986.          1.1428E-04         628.819
      2046.          8.1855E-05         622.521
      2105.          5.8629E-05         616.802
      2164.          4.1994E-05         611.712
      2223.          3.0079E-05         607.267
      2282.          2.1544E-05         603.420
      2340.          1.5431E-05         600.008
      2399.          1.1053E-05         596.816
      2457.          7.9168E-06         593.649
      2516.          5.6705E-06         590.528
      2574.          4.0616E-06         587.531
      2633.          2.9092E-06         584.729
      2691.          2.0837E-06         582.166
      2750.          1.4925E-06         579.865
      2808.          1.0690E-06         577.835
      2867.          7.6570E-07         576.075
      2926.          5.4844E-07         574.574
      2984.          3.9283E-07         573.309
      3043.          2.8137E-07         572.250
      3103.          2.0153E-07         571.350
      3162.          1.4435E-07         570.547
      3221.          1.0339E-07         569.776
      3281.          7.4057E-08         568.983
      3341.          5.3044E-08         568.144
      3401.          3.7994E-08         567.258
      3461.          2.7213E-08         566.349
      3522.          1.9492E-08         565.452
      3582.          1.3961E-08         564.610
      3643.          1.0000E-08         563.857
