!   height[km]     pressure[bar]    temperature[K]
     -1141.           100.0            1874.894
     -1044.           71.63            1764.733
     -952.8           51.30            1675.773
     -865.1           36.75            1612.413
     -780.2           26.32            1565.016
     -697.2           18.85            1533.503
     -615.5           13.50            1510.971
     -534.6           9.672            1496.249
     -454.3           6.928            1484.776
     -374.5           4.962            1474.115
     -295.1           3.554            1461.476
     -216.3           2.546            1446.497
     -138.2           1.823            1428.848
     -61.03           1.306            1409.186
      15.14          0.9354            1386.883
      90.07          0.6700            1363.190
      163.9          0.4799            1340.420
      236.6          0.3437            1320.187
      308.5          0.2462            1303.063
      379.6          0.1764            1288.830
      450.2          0.1263            1277.298
      520.3          9.0474E-02        1267.861
      590.0          6.4803E-02        1260.271
      659.5          4.6416E-02        1254.200
      728.8          3.3246E-02        1249.735
      798.0          2.3813E-02        1246.834
      867.2          1.7056E-02        1245.616
      936.5          1.2217E-02        1245.917
      1006.          8.7504E-03        1247.339
      1076.          6.2676E-03        1249.037
      1146.          4.4893E-03        1251.005
      1216.          3.2155E-03        1252.896
      1286.          2.3031E-03        1254.311
      1356.          1.6496E-03        1254.783
      1427.          1.1816E-03        1253.443
      1498.          8.4632E-04        1248.815
      1568.          6.0619E-04        1239.191
      1638.          4.3419E-04        1224.180
      1706.          3.1100E-04        1202.634
      1774.          2.2275E-04        1176.947
      1840.          1.5955E-04        1148.515
      1905.          1.1428E-04        1120.899
      1968.          8.1855E-05        1096.592
      2030.          5.8629E-05        1076.353
      2091.          4.1994E-05        1060.070
      2151.          3.0079E-05        1046.734
      2211.          2.1544E-05        1035.864
      2270.          1.5431E-05        1026.803
      2329.          1.1053E-05        1019.327
      2388.          7.9168E-06        1013.165
      2446.          5.6705E-06        1008.343
      2504.          4.0616E-06        1004.804
      2562.          2.9092E-06        1002.556
      2620.          2.0837E-06        1001.360
      2678.          1.4925E-06        1000.984
      2736.          1.0690E-06        1001.105
      2795.          7.6570E-07        1001.512
      2853.          5.4844E-07        1002.051
      2911.          3.9283E-07        1002.670
      2970.          2.8137E-07        1003.379
      3029.          2.0153E-07        1004.242
      3088.          1.4435E-07        1005.362
      3147.          1.0339E-07        1006.906
      3206.          7.4057E-08        1009.102
      3265.          5.3044E-08        1012.340
      3325.          3.7994E-08        1017.181
      3385.          2.7213E-08        1024.624
      3446.          1.9492E-08        1036.222
      3508.          1.3961E-08        1054.919
      3571.          1.0000E-08        1086.183
