!   height[km]     pressure[bar]    temperature[K]
     -2995.           100.0            2152.362
     -2792.           76.57            2032.978
     -2598.           58.63            1933.718
     -2412.           44.89            1854.999
     -2232.           34.37            1794.387
     -2057.           26.32            1749.354
     -1885.           20.15            1716.380
     -1715.           15.43            1692.808
     -1547.           11.82            1675.968
     -1379.           9.047            1664.150
     -1212.           6.928            1655.861
     -1046.           5.304            1650.082
     -878.6           4.062            1645.783
     -711.5           3.110            1642.100
     -544.2           2.381            1638.274
     -376.8           1.823            1633.840
     -209.3           1.396            1628.510
     -41.80           1.069            1622.208
      125.1          0.8185            1614.961
      291.7          0.6268            1606.930
      457.9          0.4799            1598.359
      623.9          0.3675            1589.628
      789.4          0.2814            1581.161
      954.7          0.2154            1573.268
      1120.          0.1650            1566.102
      1285.          0.1263            1559.695
      1449.          9.6718E-02        1553.994
      1614.          7.4057E-02        1548.851
      1779.          5.6705E-02        1544.182
      1944.          4.3419E-02        1539.975
      2109.          3.3246E-02        1536.279
      2274.          2.5456E-02        1533.226
      2439.          1.9492E-02        1531.021
      2605.          1.4925E-02        1529.907
      2771.          1.1428E-02        1530.134
      2938.          8.7504E-03        1531.857
      3106.          6.7002E-03        1535.201
      3274.          5.1303E-03        1540.306
      3444.          3.9283E-03        1547.216
      3616.          3.0079E-03        1555.887
      3789.          2.3031E-03        1566.183
      3963.          1.7635E-03        1577.846
      4140.          1.3503E-03        1590.514
      4319.          1.0339E-03        1603.778
      4500.          7.9168E-04        1616.974
      4683.          6.0619E-04        1629.612
      4868.          4.6416E-04        1641.166
      5055.          3.5541E-04        1651.091
      5244.          2.7213E-04        1658.894
      5434.          2.0837E-04        1664.188
      5625.          1.5955E-04        1666.731
      5817.          1.2217E-04        1666.476
      6009.          9.3544E-05        1663.543
      6202.          7.1626E-05        1658.220
      6395.          5.4844E-05        1650.986
      6588.          4.1994E-05        1642.378
      6780.          3.2155E-05        1632.994
      6972.          2.4621E-05        1623.490
      7163.          1.8852E-05        1614.557
      7354.          1.4435E-05        1606.904
      7545.          1.1053E-05        1601.230
      7736.          8.4632E-06        1598.252
      7928.          6.4803E-06        1598.416
      8121.          4.9619E-06        1602.181
      8315.          3.7994E-06        1609.907
      8511.          2.9092E-06        1621.525
      8709.          2.2275E-06        1636.726
      8910.          1.7056E-06        1654.897
      9114.          1.3060E-06        1675.241
      9321.          1.0000E-06        1697.154
